{
  "id": "20428-002-XX",
  "reaction": {
    "x4code": "(94-PU-239(N,F),,SIG)",
    "target": "94-PU-239",
    "process": "N,F",
    "sf4": null,
    "residual": null,
    "sf5": null,
    "sf6": "SIG",
    "sf7": null,
    "sf8": null,
    "sf9": null,
    "freetext": []
  },
  "measurement_conditions": {
    "ERR-ANALYS": {
      "XX": {
        "0": {
          "x4code": "(ERR-SYS,3.5,4.)",
          "freetext": [
            " Total systematic uncertainty  (3.5-4%)",
            " excluding absolute normalization uncertainty (~4%)"
          ]
        },
        "1": {
          "x4code": "(ERR-1,2.5,3.5)",
          "freetext": [
            " Neutron spectrum measurement (2.5-3.5%)",
            " including",
            " - standard detector efficiency  (~2%),",
            " - boron-vaseline plug detector (2-3%),",
            " - actual spectrum measurement (~1.5%)."
          ]
        },
        "2": {
          "x4code": "(ERR-2,0.,0.5)",
          "freetext": [
            "  Fission neutron detector efficiency",
            "                                               (0-0.5%)"
          ]
        },
        "3": {
          "x4code": "(ERR-3,1.,1.5)",
          "freetext": [
            "  Background determination       (1-1.5%)"
          ]
        },
        "4": {
          "x4code": "(ERR-4)",
          "freetext": [
            "         Sample thickness correction        (1%)"
          ]
        },
        "5": {
          "x4code": "(ERR-5)",
          "freetext": [
            "         nu-p values                        (1%)"
          ]
        },
        "6": {
          "x4code": "(MONIT-ERR)",
          "freetext": [
            "     Normalization at 10-30 keV         (4%)"
          ]
        }
      }
    },
    "MONITOR": {
      "XX": {
        "(MONIT)": {
          "x4code": [
            "(94-PU-239(N,F),,SIG,,AV)"
          ],
          "freetext": [
            " Absolute normalization"
          ]
        },
        "1": {
          "x4code": [
            "(5-B-10(N,A)3-LI-7,PAR,SIG)"
          ],
          "freetext": [
            "      Shape normalization"
          ]
        }
      }
    }
  },
  "common_data": {
    "heads": [
      "EN-NRM-MIN",
      "EN-NRM-MAX",
      "MONIT",
      "MONIT-ERR",
      "ERR-4",
      "ERR-5"
    ],
    "units": [
      "KEV",
      "KEV",
      "B",
      "PER-CENT",
      "PER-CENT",
      "PER-CENT"
    ],
    "data": {
      "0": [
        10.0
      ],
      "1": [
        30.0
      ],
      "2": [
        1.6775
      ],
      "3": [
        4.0
      ],
      "4": [
        1.0
      ],
      "5": [
        1.0
      ]
    }
  },
  "data_table": {
    "heads": [
      "EN",
      "DATA"
    ],
    "units": [
      "EV",
      "B"
    ],
    "data": {
      "0": [
        1004.8,
        1022.5,
        1040.7,
        1059.3,
        1078.5,
        1098.2,
        1118.5,
        1139.3,
        1160.7,
        1182.7,
        1205.3,
        1228.6,
        1252.6,
        1277.3,
        1302.7,
        1328.9,
        1355.9,
        1383.8,
        1412.5,
        1442.0,
        1472.6,
        1504.1,
        1536.6,
        1570.2,
        1604.9,
        1640.8,
        1677.9,
        1716.3,
        1756.0,
        1797.1,
        1839.6,
        1883.7,
        1929.4,
        1976.8,
        2025.9,
        2076.9,
        2129.8,
        2184.8,
        2242.0,
        2301.4,
        2363.2,
        2427.5,
        2494.5,
        2564.3,
        2637.1,
        2713.1,
        2792.3,
        2875.1,
        2961.6,
        3052.1,
        3146.8,
        3220.5,
        3271.2,
        3323.2,
        3376.3,
        3430.8,
        3486.7,
        3543.8,
        3602.5,
        3662.5,
        3724.1,
        3787.3,
        3852.1,
        3918.5,
        3986.7,
        4056.7,
        4128.5,
        4202.3,
        4278.1,
        4355.9,
        4435.9,
        4518.1,
        4602.6,
        4689.5,
        4778.9,
        4870.8,
        4965.5,
        5062.9,
        5163.2,
        5266.6,
        5373.0,
        5482.8,
        5595.9,
        5712.6,
        5832.9,
        5957.1,
        6085.3,
        6217.7,
        6354.5,
        6495.8,
        6641.9,
        6793.0,
        6949.2,
        7111.0,
        7278.4,
        7451.9,
        7631.6,
        7817.9,
        8011.1,
        8211.5,
        8419.6,
        8635.7,
        8860.2,
        9093.6,
        9336.3,
        9588.9,
        9851.8,
        10126.0,
        10411.0,
        10633.0,
        10785.0,
        10940.0,
        11099.0,
        11261.0,
        11427.0,
        11597.0,
        11770.0,
        11947.0,
        12128.0,
        12314.0,
        12503.0,
        12697.0,
        12896.0,
        13099.0,
        13307.0,
        13521.0,
        13739.0,
        13963.0,
        14192.0,
        14427.0,
        14667.0,
        14914.0,
        15167.0,
        15427.0,
        15693.0,
        15966.0,
        16247.0,
        16535.0,
        16830.0,
        17134.0,
        17446.0,
        17766.0,
        18096.0,
        18434.0,
        18783.0,
        19141.0,
        19510.0,
        19889.0,
        20279.0,
        20682.0,
        21096.0,
        21523.0,
        21962.0,
        22416.0,
        22884.0,
        23366.0,
        23864.0,
        24378.0,
        24909.0,
        25457.0,
        26024.0,
        26609.0,
        27215.0,
        27842.0,
        28490.0,
        29162.0,
        29857.0,
        30578.0,
        31325.0,
        32100.0,
        32904.0,
        33738.0,
        34605.0,
        35505.0,
        36442.0,
        37415.0,
        38428.0,
        39483.0,
        40582.0,
        41727.0,
        42922.0,
        44169.0,
        45471.0,
        46831.0,
        48253.0,
        49741.0,
        51299.0,
        52931.0,
        54642.0,
        56438.0,
        58324.0,
        60306.0,
        62390.0,
        64585.0,
        66897.0,
        69336.0,
        71911.0,
        74632.0,
        77510.0,
        80558.0,
        83790.0,
        87219.0,
        90585.0,
        92485.0,
        94445.0,
        96468.0,
        98558.0,
        100720.0,
        102940.0,
        105250.0,
        107630.0,
        110100.0,
        112650.0,
        115280.0,
        118020.0,
        120850.0,
        123780.0,
        126830.0,
        129980.0,
        133260.0,
        136660.0,
        140200.0,
        143870.0,
        147690.0,
        151660.0,
        155790.0,
        160100.0,
        164590.0,
        169270.0,
        174150.0,
        179240.0,
        184570.0,
        190130.0,
        195950.0,
        202040.0,
        208420.0,
        215100.0,
        222120.0,
        229480.0,
        237210.0,
        245340.0,
        253900.0,
        262910.0,
        272410.0,
        282430.0,
        293020.0,
        304220.0,
        313020.0,
        319120.0,
        325390.0,
        331860.0,
        338510.0,
        345370.0,
        352440.0,
        359730.0,
        367250.0,
        375010.0,
        383020.0,
        391280.0,
        399820.0,
        408630.0,
        417750.0,
        427170.0,
        436910.0,
        446990.0,
        457430.0,
        468230.0,
        479420.0,
        491020.0,
        503040.0,
        515510.0,
        528450.0,
        541890.0,
        555840.0,
        570340.0,
        585410.0,
        601090.0,
        617410.0,
        634400.0,
        652110.0,
        670560.0,
        689810.0,
        709910.0,
        730890.0,
        752820.0,
        775750.0,
        799740.0,
        824870.0,
        851190.0,
        878810.0,
        907780.0,
        938220.0,
        970210.0,
        1003900.0
      ],
      "1": [
        7.9523,
        8.3918,
        7.7522,
        5.2018,
        2.5471,
        8.5513,
        3.1246,
        9.864,
        3.1503,
        7.1971,
        4.9277,
        3.4577,
        5.0791,
        4.8267,
        5.6009,
        10.161,
        7.9155,
        5.8973,
        3.91,
        4.6606,
        4.5518,
        3.0302,
        2.5429,
        2.5642,
        4.325,
        3.4158,
        3.5086,
        3.1898,
        1.941,
        6.4684,
        6.092,
        3.4794,
        1.9632,
        1.6847,
        2.5279,
        1.288,
        3.3224,
        2.4501,
        2.5307,
        4.7077,
        2.3172,
        4.0844,
        4.9545,
        1.719,
        2.799,
        3.5305,
        5.0037,
        4.1215,
        3.1692,
        3.0857,
        4.809,
        2.9105,
        5.7348,
        2.0027,
        1.4877,
        2.3431,
        2.01,
        2.3474,
        2.0949,
        2.9909,
        2.975,
        3.6852,
        4.2589,
        3.0727,
        2.2215,
        1.9819,
        1.6859,
        3.0089,
        2.0933,
        2.4273,
        3.1864,
        3.0217,
        2.6901,
        2.6439,
        2.1816,
        1.9655,
        1.8735,
        1.7548,
        2.5474,
        3.3314,
        1.4262,
        2.1126,
        2.497,
        2.2474,
        2.2104,
        2.3778,
        2.5482,
        2.4624,
        2.0521,
        1.5907,
        1.8275,
        2.3401,
        1.5536,
        1.8035,
        1.9681,
        2.7826,
        2.4419,
        1.7869,
        2.1692,
        2.1239,
        2.4788,
        2.1056,
        2.1668,
        1.8577,
        1.5776,
        2.1028,
        1.7785,
        1.6386,
        1.7794,
        2.0305,
        2.1444,
        1.9801,
        1.6342,
        1.7677,
        2.0642,
        1.7988,
        1.7411,
        1.6405,
        1.6822,
        1.9325,
        1.9174,
        1.8272,
        1.9278,
        2.0102,
        1.9139,
        1.6099,
        1.6768,
        1.6286,
        1.4958,
        1.5426,
        1.5801,
        1.743,
        1.7773,
        1.8711,
        1.6716,
        1.6044,
        1.8291,
        1.7435,
        1.5575,
        1.4952,
        1.7918,
        1.9061,
        1.7399,
        1.771,
        1.537,
        1.7276,
        1.7842,
        1.5325,
        1.6547,
        1.6679,
        1.7116,
        1.7358,
        1.7475,
        1.5631,
        1.4448,
        1.5296,
        1.7752,
        1.6518,
        1.7194,
        1.5671,
        1.6196,
        1.697,
        1.562,
        1.4634,
        1.5652,
        1.5909,
        1.5252,
        1.3604,
        1.6271,
        1.5571,
        1.6983,
        1.6654,
        1.7167,
        1.7176,
        1.7128,
        1.6147,
        1.6376,
        1.6157,
        1.5173,
        1.6082,
        1.5516,
        1.5611,
        1.4996,
        1.4735,
        1.6179,
        1.5926,
        1.5396,
        1.5664,
        1.502,
        1.6216,
        1.5737,
        1.6584,
        1.6425,
        1.5212,
        1.5413,
        1.6542,
        1.6414,
        1.5209,
        1.5393,
        1.5788,
        1.5859,
        1.6038,
        1.5445,
        1.6015,
        1.5542,
        1.4857,
        1.5367,
        1.6095,
        1.5721,
        1.5347,
        1.5012,
        1.4787,
        1.5325,
        1.4479,
        1.4755,
        1.3925,
        1.5064,
        1.5332,
        1.4515,
        1.4128,
        1.561,
        1.4394,
        1.5021,
        1.5189,
        1.5834,
        1.4718,
        1.5576,
        1.4902,
        1.4426,
        1.4211,
        1.4795,
        1.4748,
        1.4136,
        1.4885,
        1.5055,
        1.5259,
        1.5368,
        1.5304,
        1.5057,
        1.4987,
        1.4974,
        1.4618,
        1.4799,
        1.5143,
        1.5116,
        1.5103,
        1.4877,
        1.4697,
        1.4791,
        1.5074,
        1.4919,
        1.51,
        1.5302,
        1.5517,
        1.5157,
        1.4982,
        1.5096,
        1.5296,
        1.5188,
        1.5693,
        1.4869,
        1.5614,
        1.5318,
        1.5215,
        1.5431,
        1.5688,
        1.5977,
        1.6187,
        1.5537,
        1.5882,
        1.5822,
        1.6139,
        1.6037,
        1.647,
        1.6465,
        1.6234,
        1.636,
        1.731,
        1.6389,
        1.6439,
        1.5997,
        1.6416,
        1.6526,
        1.6881,
        1.6634,
        1.7098,
        1.6949,
        1.7521,
        1.7183,
        1.7855,
        1.7361,
        1.7856,
        1.7815,
        1.8646
      ]
    }
  }
}